time (s)	coil I (A)	last det (V)	int current (uC)
1852.780445	0.384726	568.359375	-51.757812
1852.782447	0.390765	568.359375	-51.757812
1852.784447	0.389614	4.285758	0.515276
1853.794411	0.390667	95.703125	283.398437
1853.796413	0.389560	4.285163	0.575686
1854.864423	0.387101	569.726562	-51.562500
1854.866426	0.389717	4.286892	0.520775
1855.871364	0.316176	86.718750	302.734375
1855.873365	0.390276	86.718750	302.734375
1855.875367	0.388895	4.277843	0.578479
1856.943869	0.387311	575.292969	-54.687500
1856.945870	0.390816	4.298980	0.532817
1857.951880	0.285383	83.789062	284.082031
1857.953879	0.392880	83.789062	284.082031
1857.955880	0.391243	4.303668	0.550707
1859.022321	0.390057	581.152344	-59.179687
1859.024322	0.389995	4.289949	0.558430
1860.036850	0.371606	82.226562	265.625000
1860.038852	0.390264	82.226562	265.625000
1860.040853	0.389114	4.280254	0.518789
1861.102897	0.391214	582.910156	-62.792969
1861.104898	0.390132	4.291447	0.546362
1862.125465	0.389367	85.546875	235.742187
1862.127465	0.388413	4.272544	0.563217
1863.171971	0.266737	584.277344	-65.429687
1863.175971	0.390494	584.277344	-65.429687
1863.177974	0.389565	4.285217	0.602688
1864.206014	0.337912	92.968750	201.269531
1864.208014	0.390357	92.968750	201.269531
1864.210013	0.389079	4.279864	0.514057
1865.252079	0.389889	576.464844	-64.453125
1865.254083	0.389800	4.287805	0.559410
1866.292093	0.372107	88.671875	233.886719
1866.294095	0.390221	88.671875	233.886719
1866.296096	0.389054	4.279589	0.509017
1867.330140	0.390895	576.367187	-67.382812
1867.332141	0.389862	4.288478	0.561844
1868.378124	0.391795	83.398437	285.742187
1868.380127	0.390509	4.295603	0.507700
1869.408089	0.390361	570.019531	-64.550781
1869.410090	0.389340	4.282744	0.557080
1870.460619	0.391614	88.281250	282.226562
1870.462622	0.390039	4.290428	0.710381
1871.486664	0.387727	564.746094	-62.304687
1871.488667	0.389479	4.284268	0.541203
1872.539630	0.370343	92.285156	280.566406
1872.541631	0.389787	92.285156	280.566406
1872.543632	0.388601	4.274609	0.530249
1873.567675	0.390949	561.816406	-60.742187
1873.571676	0.388516	4.273678	0.542125
1874.618185	0.337981	91.113281	307.421875
1874.620186	0.390496	91.113281	307.421875
1874.622187	0.389171	4.280883	0.561664
1875.650613	0.390224	563.671875	-59.863281
1875.652613	0.389071	4.279784	0.522545
1876.698638	0.378387	97.265625	291.015625
1876.700641	0.389772	97.265625	291.015625
1876.702639	0.388707	4.275778	0.543941
1877.730671	0.388131	562.890625	-58.398437
1877.732671	0.389722	4.286945	0.533240
1878.776704	0.343396	94.921875	315.136719
1878.778706	0.390229	94.921875	315.136719
1878.780706	0.388970	4.278667	0.556428
1879.812736	0.364039	559.082031	-55.175781
1879.814739	0.390432	559.082031	-55.175781
1879.816738	0.389172	4.280892	0.521699
1880.852783	2.335406	99.707031	298.144531
1880.862108	0.389905	99.707031	298.144531
1880.864109	0.389327	4.282594	0.558078
1881.896672	0.376358	564.160156	-56.347656
1881.898674	0.390007	564.160156	-56.347656
1881.900673	0.388859	4.277453	0.513752
1882.935244	0.390896	102.929687	286.132812
1882.937247	0.390951	4.300460	0.553747
1883.981268	0.389711	565.527344	-55.859375
1883.983271	0.388793	4.276718	0.659549
1885.015250	0.390517	91.894531	342.480469
1885.017253	0.389196	4.281157	0.567803
1886.063270	0.388895	563.671875	-54.199219
1886.065271	0.388005	4.268059	0.695708
1887.093783	0.303125	94.726562	329.589844
1887.095787	0.390250	94.726562	329.589844
1887.097786	0.388841	4.277249	0.571583
1888.141793	0.389887	562.500000	-53.710937
1888.143794	0.388904	4.277941	0.498685
1889.176341	0.345515	96.093750	322.949219
1889.180341	0.388749	96.093750	322.949219
1889.182345	0.387950	4.267448	0.554415
1890.218411	0.322153	566.308594	-56.054687
1890.220414	0.389947	566.308594	-56.054687
1890.222415	0.388614	4.274750	0.509275
1891.260474	0.390631	97.460937	313.769531
1891.262477	0.389152	4.280670	0.549389
1892.302997	0.389717	565.625000	-56.835937
1892.305001	0.388998	4.278978	0.504261
1893.343045	0.391055	93.066406	332.226562
1893.345047	0.390016	4.290171	0.550986
1894.379028	0.390866	563.476562	-57.324219
1894.381029	0.389755	4.287300	0.510397
1895.423054	0.360070	99.121094	294.042969
1895.425055	0.389857	99.121094	294.042969
1895.427054	0.388650	4.275149	0.547912
1896.456036	0.385000	568.457031	-60.449219
1896.458039	0.389164	568.457031	-60.449219
1896.460038	0.388117	4.269282	0.519846
1897.506077	0.391131	98.828125	284.277344
1897.508077	0.389632	4.285952	0.696400
1898.534131	0.361891	570.605469	-62.890625
1898.536132	0.389910	570.605469	-62.890625
1898.538133	0.388740	4.276142	0.546599
1899.590162	0.388975	87.792969	327.832031
1899.592163	0.388149	4.269637	0.542794
1900.616626	0.390520	571.679687	-64.453125
1900.618626	0.389309	4.282399	0.540034
1901.669139	0.391591	88.671875	307.421875
1901.671140	0.390694	4.297633	0.518532
1902.697219	0.390328	575.000000	-66.113281
1902.699223	0.389120	4.280316	0.548535
1903.749794	0.391585	87.011719	297.949219
1903.751797	0.390003	4.290029	0.587909
1904.777851	0.390495	577.832031	-67.675781
1904.779854	0.389035	4.279386	0.567530
1905.826369	0.323072	82.128906	308.691406
1905.828372	0.390275	82.128906	308.691406
1905.830370	0.388902	4.277923	0.524828
1906.862889	0.389014	583.593750	-70.996094
1906.864892	0.388134	4.269477	0.616186
1907.904925	0.390655	81.933594	294.238281
1907.906927	0.390678	4.297456	0.528339
1908.942963	0.280799	586.816406	-71.484375
1908.944963	0.390944	586.816406	-71.484375
1908.946963	0.389474	4.284215	0.569716
1909.981415	0.328000	83.789062	276.074219
1909.983416	0.390556	83.789062	276.074219
1909.985415	0.389251	4.281761	0.504012
1911.027468	0.364159	587.695312	-69.726562
1911.031465	0.388783	587.695312	-69.726562
1911.033466	0.387951	4.267466	0.578957
1912.058388	0.378523	80.664062	295.996094
1912.060388	0.389560	80.664062	295.996094
1912.062390	0.388441	4.272854	0.507793
1913.112397	0.389309	593.164062	-69.531250
1913.114398	0.389695	4.286644	0.557681
1914.136400	0.390555	82.910156	291.210937
1914.138401	0.389102	4.280121	0.566765
1915.196417	0.378092	596.093750	-67.285156
1915.198420	0.389876	596.093750	-67.285156
1915.200419	0.388756	4.276319	0.552601
1916.212438	0.368556	80.859375	317.871094
1916.214438	0.389591	80.859375	317.871094
1916.216441	0.388442	4.272863	0.525414
1917.280441	0.391305	597.167969	-66.015625
1917.282443	0.390793	4.298723	0.554877
1918.292414	0.390598	91.601562	286.328125
1918.294415	0.389243	4.281672	0.536621
1919.362430	0.377409	596.582031	-62.207031
1919.364430	0.389718	596.582031	-62.207031
1919.366431	0.388598	4.274582	0.530315
1920.372448	0.390492	92.187500	305.468750
1920.374452	0.389764	4.287406	0.530906
1921.442460	1.827466	594.335937	-59.375000
1921.446460	0.388381	594.335937	-59.375000
1921.448461	0.387550	4.263052	0.519019
1922.454467	0.391797	89.941406	339.843750
1922.456467	0.390217	4.292387	0.651010
1923.520512	0.264756	587.695312	-55.859375
1923.522512	0.390964	587.695312	-55.859375
1923.524512	0.389551	4.285066	0.535006
1924.535458	0.346035	90.234375	353.613281
1924.537458	0.390190	90.234375	353.613281
1924.539460	0.388879	4.277666	0.559826
1925.603478	0.388670	585.058594	-56.250000
1925.605480	0.387859	4.266446	0.507333
1926.620035	0.389403	91.503906	355.175781
1926.622036	0.389298	4.282274	0.546460
1927.678092	0.344019	583.105469	-55.957031
1927.680093	0.390051	583.105469	-55.957031
1927.682093	0.388730	4.276035	0.500148
1928.702148	0.387864	89.355469	372.949219
1928.704149	0.393160	89.355469	372.949219
1928.706148	0.392014	4.312150	0.555328
1929.756108	0.350018	578.417969	-55.859375
1929.760109	0.388664	578.417969	-55.859375
1929.762110	0.387843	4.266269	0.499824
1930.785094	0.390315	100.488281	321.875000
1930.787094	0.388932	4.278251	0.804789
1931.835072	0.348967	580.371094	-57.226562
1931.837075	0.389779	580.371094	-57.226562
1931.839073	0.388586	4.274449	0.506550
1932.867060	0.390406	99.902344	324.804687
1932.871061	0.388060	99.902344	324.804687
1932.873060	0.387380	4.261182	0.576773
1933.918015	0.389682	578.125000	-56.933594
1933.920019	0.388556	4.274121	0.515996
1934.946573	0.344866	89.648437	372.558594
1934.948575	0.391639	89.648437	372.558594
1934.950573	0.390222	4.292439	0.568212
1935.996626	0.381125	579.492187	-57.519531
1936.002625	0.387499	579.492187	-57.519531
1936.004627	0.386886	4.255750	0.502515
1937.029223	0.389908	95.605469	344.726562
1937.031225	0.388911	4.278020	0.543044
1938.081826	0.390020	581.640625	-56.445312
1938.083830	0.388884	4.277719	0.493381
1939.104379	0.330060	96.777344	337.988281
1939.106380	0.389801	96.777344	337.988281
1939.108380	0.388440	4.272845	0.562122
1940.164931	0.389340	585.156250	-57.617187
1940.166933	0.388356	4.271914	0.509708
1941.182933	0.390170	92.578125	352.734375
1941.184934	0.389545	4.284995	0.559509
1942.248984	0.388677	588.867187	-57.128906
1942.250988	0.387816	4.265977	0.688586
1943.263511	0.389967	87.402344	372.656250
1943.265512	0.388695	4.275645	0.550888
1944.329522	0.390148	594.238281	-58.300781
1944.331523	0.388678	4.275459	0.756370
1945.342072	0.392153	81.738281	386.718750
1945.344074	0.390815	4.298962	0.547512
1946.410107	2.228080	598.046875	-60.644531
1946.412107	0.389780	598.046875	-60.644531
1946.414107	0.388474	4.273217	0.514241
1947.420156	0.391664	91.796875	322.949219
1947.422158	0.390173	4.291908	0.625792
1948.493071	0.388798	600.488281	-64.648437
1948.497071	0.387275	4.260021	0.655837
1949.501124	0.387445	80.175781	364.453125
1949.503124	0.389471	4.284180	0.540158
1950.569108	0.319195	601.367187	-66.113281
1950.571111	0.390147	601.367187	-66.113281
1950.573109	0.388676	4.275433	0.547969
1951.585157	0.389174	77.246094	362.890625
1951.587158	0.388151	4.269663	0.514334
1952.649161	0.391147	601.464844	-69.042969
1952.651165	0.390455	4.295001	0.541094
1953.667197	0.390690	78.808594	344.335937
1953.669199	0.389188	4.281069	0.513800
1954.725654	0.285990	599.414062	-71.386719
1954.727656	0.389973	599.414062	-71.386719
1954.729654	0.388551	4.274059	0.557181
1955.750207	0.389940	80.859375	323.730469
1955.752208	0.388616	4.274777	0.522840
1956.804257	0.390237	598.437500	-70.800781
1956.806258	0.389286	4.282150	0.567996
1957.832816	0.387978	78.417969	338.085937
1957.834818	0.389460	4.284056	0.497673
1958.883304	0.391423	595.800781	-73.925781
1958.885304	0.390135	4.291482	0.548183
1959.915836	0.358424	78.222656	343.457031
1959.917838	0.389917	78.222656	343.457031
1959.919838	0.388718	4.275902	0.510874
1960.961855	0.390357	594.335937	-73.730469
1960.963856	0.388965	4.278615	0.872559
1961.998825	0.385512	82.910156	317.089844
1962.000826	0.389413	82.910156	317.089844
1962.002827	0.388346	4.271808	0.493821
1963.038882	0.372965	593.359375	-74.316406
1963.040883	0.389524	593.359375	-74.316406
1963.042882	0.388345	4.271791	0.558830
1964.084917	0.528947	84.277344	318.457031
1964.086917	0.389626	4.285890	0.688585
1965.117476	0.333750	592.382812	-74.218750
1965.119477	0.390091	592.382812	-74.218750
1965.121476	0.388789	4.276682	0.560028
1966.165535	0.341212	80.859375	342.382812
1966.167537	0.388927	80.859375	342.382812
1966.169538	0.388121	4.269335	0.498285
1967.197564	0.387715	589.746094	-74.218750
1967.199566	0.388961	4.278570	0.569699
1968.247615	0.389215	84.667969	330.175781
1968.249617	0.388212	4.270337	0.498079
1969.277675	0.387835	590.429687	-72.753906
1969.279676	0.389356	4.282921	0.565097
1970.326617	0.381379	91.796875	297.363281
1970.328619	0.389526	91.796875	297.363281
1970.330618	0.388411	4.272526	0.505516
1971.356669	1.792457	589.355469	-72.363281
1971.358669	0.389484	589.355469	-72.363281
1971.360672	0.388231	4.270541	0.548729
1972.411666	0.389685	86.621094	329.199219
1972.413669	0.387808	4.265888	0.506531
1973.437689	0.389477	588.476562	-71.679687
1973.439692	0.389484	4.284322	0.555303
1974.490628	0.391428	85.546875	342.871094
1974.492630	0.389953	4.289480	0.558485
1975.518648	0.390260	588.281250	-71.875000
1975.520652	0.388994	4.278934	0.553954
1976.572716	0.390212	92.578125	310.742187
1976.574720	0.389228	4.281504	0.497559
1977.599711	0.389194	585.937500	-72.656250
1977.601711	0.388205	4.270257	0.560250
1978.650174	0.336734	94.238281	307.128906
1978.652177	0.389686	94.238281	307.128906
1978.654176	0.389632	4.285952	0.512586
1979.678185	0.313892	586.132812	-72.656250
1979.680188	0.389916	586.132812	-72.656250
1979.682184	0.388606	4.274662	0.538936
1980.730665	0.395909	83.398437	364.941406
1980.732667	0.395061	4.345666	0.518316
1981.760685	0.390391	587.597656	-70.898437
1981.762686	0.389170	4.280865	0.539859
1982.813235	0.390548	85.351562	356.054687
1982.815237	0.389062	4.279687	0.619272
1983.839348	0.300309	587.304687	-71.484375
1983.841351	0.390481	587.304687	-71.484375
1983.843349	0.389003	4.279031	0.537419
1984.893386	0.391768	90.234375	335.839844
1984.895387	0.390516	4.295674	0.503912
1985.919952	0.350453	585.351562	-72.265625
1985.921955	0.390536	585.351562	-72.265625
1985.923955	0.389280	4.282080	0.553866
1986.976452	0.389721	82.421875	371.093750
1986.978455	0.388922	4.278145	0.518043
1987.998457	2.051966	587.304687	-72.070312
1988.000460	0.287460	587.304687	-72.070312
1988.002460	0.389847	4.288319	0.553757
1989.054490	0.390316	85.058594	363.378906
1989.058495	0.388485	4.273333	0.507785
1990.082510	0.390880	587.304687	-71.093750
1990.084509	0.389401	4.283409	0.540527
1991.134522	0.389402	88.574219	343.847656
1991.136524	0.389763	4.287397	0.512556
1992.162554	0.389593	585.156250	-72.851562
1992.164556	0.389564	4.285199	0.530557
1993.216577	0.390078	81.250000	379.687500
1993.218578	0.388896	4.277852	0.511242
1994.242591	0.373961	588.769531	-71.972656
1994.244593	0.390030	588.769531	-71.972656
1994.246593	0.388876	4.277639	0.539084
1995.295105	0.378588	83.300781	366.406250
1995.297110	0.390103	83.300781	366.406250
1995.299109	0.388931	4.278242	0.508358
1996.325120	0.389579	589.746094	-71.386719
1996.327124	0.388385	4.272233	0.539744
1997.377149	0.392148	85.253906	358.789062
1997.379151	0.390691	4.297597	0.582324
1998.403161	0.370733	587.792969	-73.437500
1998.405162	0.390936	587.792969	-73.437500
1998.407163	0.389712	4.286830	0.561794
1999.457168	0.389394	83.203125	366.601562
1999.459170	0.389060	4.279660	0.499921
2000.485681	0.390208	591.210937	-73.046875
2000.487683	0.389715	4.286865	0.530500
2001.537699	0.387631	82.519531	365.429687
2001.539700	0.390027	4.290295	0.496396
2002.567678	0.389599	591.406250	-74.218750
2002.569682	0.388363	591.406250	-74.218750
2002.571681	0.387544	4.262981	0.540085
2003.616612	0.381884	82.421875	361.621094
2003.618612	0.389616	82.421875	361.621094
2003.620613	0.388615	4.274768	0.502953
2004.648680	0.393407	592.089844	-74.804687
2004.650683	0.391969	4.311662	0.545718
2005.697623	0.389987	82.128906	358.496094
2005.699625	0.389395	4.283347	0.493461
2006.729704	0.390591	592.773437	-75.683594
2006.731705	0.389138	4.280520	0.546842
2007.778240	0.390847	87.597656	328.906250
2007.780242	0.389323	4.282558	0.503394
2008.808768	0.359122	591.210937	-76.855469
2008.812774	0.388664	591.210937	-76.855469
2008.814776	0.387850	4.266349	0.554298
2009.856770	0.343671	86.230469	330.957031
2009.858772	0.390043	86.230469	330.957031
2009.860771	0.388749	4.276239	0.491814
2010.889281	0.336276	591.503906	-77.636719
2010.891282	0.390446	591.503906	-77.636719
2010.893281	0.389112	4.280236	0.574534
2011.937768	0.389033	86.328125	327.539062
2011.939770	0.389140	4.280538	0.477586
2012.972701	0.356897	593.359375	-78.222656
2012.974702	0.389879	593.359375	-78.222656
2012.976704	0.388649	4.275140	0.544664
2014.016729	0.391550	81.933594	348.437500
2014.018731	0.389988	81.933594	348.437500
2014.020733	0.389088	4.279970	0.499668
2015.054741	1.869721	595.507812	-77.832031
2015.056744	0.389429	595.507812	-77.832031
2015.058744	0.388297	4.271267	0.542505
2016.094718	0.382454	77.246094	370.898437
2016.096721	0.389336	77.246094	370.898437
2016.098719	0.388254	4.270798	0.505247
2017.136752	0.385470	598.339844	-77.441406
2017.138754	0.388970	4.278667	0.544144
2018.174868	0.392020	75.390625	375.390625
2018.176870	0.390476	4.295240	0.720561
2019.219400	0.390268	599.121094	-77.539062
2019.221403	0.390554	4.296091	0.541935
2020.253420	0.390485	76.074219	371.191406
2020.255423	0.389081	4.279891	0.558029
2021.301430	0.384933	595.996094	-78.222656
2021.305431	0.389539	595.996094	-78.222656
2021.307434	0.388881	4.277693	0.562642
2022.333890	0.391860	73.632812	387.500000
2022.335891	0.390832	4.299148	0.482224
2023.385881	0.389473	602.636719	-76.660156
2023.387885	0.388563	4.274192	0.664090
2024.410424	0.419443	83.984375	336.328125
2024.412425	0.389067	4.279740	0.498717
2025.466997	0.341967	603.515625	-75.585937
2025.468999	0.389650	603.515625	-75.585937
2025.470998	0.388375	4.272127	0.538652
2026.487063	0.303300	77.246094	378.027344
2026.489066	0.308982	77.246094	378.027344
2026.491064	0.388959	4.278552	0.506270
2027.553104	0.388954	606.542969	-73.828125
2027.555109	0.388018	4.268201	0.675050
2028.567672	0.392012	80.078125	370.605469
2028.571672	0.389537	4.284906	0.566490
2029.633727	0.389768	608.105469	-71.875000
2029.639725	0.386742	4.254163	0.531006
2030.646237	0.390719	76.660156	400.292969
2030.648238	0.389332	4.282656	0.518424
2031.714259	0.381480	609.375000	-70.117187
2031.716261	0.389860	609.375000	-70.117187
2031.718260	0.388722	4.275938	0.519586
2032.726282	0.390832	77.539062	406.738281
2032.728283	0.389420	4.283622	0.524623
2033.796265	0.389943	610.058594	-67.773437
2033.798274	0.389824	4.288062	0.523293
2034.806829	0.390005	80.273437	407.617187
2034.808833	0.388730	4.276027	0.546014
2035.877295	0.390132	609.472656	-65.625000
2035.879297	0.388748	4.276230	0.510213
2036.887898	0.384849	81.933594	409.277344
2036.889900	0.389031	81.933594	409.277344
2036.891899	0.388003	4.268033	0.516969
2037.955924	0.392255	607.910156	-64.941406
2037.957933	0.390957	4.300531	0.498265
2038.968461	0.331905	86.425781	395.312500
2038.970466	0.389804	86.425781	395.312500
2038.972465	0.388465	4.273120	0.530010
2040.034499	0.375412	604.394531	-64.843750
2040.036500	0.389920	604.394531	-64.843750
2040.038501	0.388839	4.277232	0.498718
2041.050498	0.263658	84.082031	409.375000
2041.052499	0.390714	84.082031	409.375000
2041.054498	0.389401	4.283409	0.529889
2042.114555	0.391469	604.003906	-63.574219
2042.116558	0.390177	4.291943	0.507359
2043.135513	0.391084	88.378906	395.507812
2043.137515	0.390031	4.290339	0.524040
2044.193542	0.390907	601.855469	-64.355469
2044.195544	0.390720	4.297916	0.497786
2045.213580	0.302386	83.203125	417.871094
2045.215583	0.389966	83.203125	417.871094
2045.217582	0.388490	4.273395	0.557438
2046.274042	0.382459	601.269531	-64.941406
2046.276044	0.389182	601.269531	-64.941406
2046.278043	0.388148	4.269628	0.487604
2047.294077	0.343830	89.843750	389.453125
2047.296081	0.390072	89.843750	389.453125
2047.298079	0.388783	4.276611	0.538703
2048.356096	0.390327	602.050781	-64.550781
2048.358094	0.389104	4.280138	0.490391
2049.376103	0.353023	86.230469	406.054687
2049.378104	0.390067	86.230469	406.054687
2049.380106	0.390016	4.290179	0.521300
2050.434155	0.313639	603.027344	-64.550781
2050.436156	0.390377	603.027344	-64.550781
2050.438156	0.388964	4.278605	0.502873
2051.456190	0.380782	85.449219	408.789062
2051.458190	0.389593	85.449219	408.789062
2051.460192	0.388510	4.273607	0.519264
2052.516156	0.308428	604.492187	-64.843750
2052.518159	0.390786	604.492187	-64.843750
2052.520158	0.389310	4.282407	0.501040
2053.536193	0.390882	85.058594	408.593750
2053.538195	0.389348	4.282833	0.644548
2054.598209	0.349815	606.347656	-66.015625
2054.600215	0.390034	606.347656	-66.015625
2054.602219	0.388756	4.276319	0.502646
2055.614283	0.388598	91.894531	374.511719
2055.616291	0.388981	4.278791	0.541950
2056.681256	0.390690	609.179687	-65.625000
2056.683256	0.389242	4.281663	0.506433
2057.693780	0.361986	82.714844	408.496094
2057.697780	0.389433	82.714844	408.496094
2057.699783	0.388610	4.274706	0.521270
2058.761767	0.321446	609.472656	-67.871094
2058.765768	0.388993	609.472656	-67.871094
2058.767769	0.388104	4.269141	0.504791
2059.775800	0.389924	87.402344	383.007812
2059.777802	0.388747	4.276213	0.512071
2060.844352	0.391953	607.714844	-70.312500
